q_z(A^-1);Intensity
2.170859;1963.408000
2.169019;1998.289000
2.167178;1976.711000
2.165336;1973.750000
2.163493;1989.684000
2.161649;1989.618000
2.159803;1995.342000
2.157957;1987.026000
2.156110;1998.961000
2.154262;2006.355000
2.152412;2008.684000
2.150562;2015.500000
2.148710;2008.776000
2.146858;2027.329000
2.145004;2028.421000
2.143150;2038.329000
2.141294;2027.724000
2.139437;2044.513000
2.137580;2045.184000
2.135721;2048.237000
2.133861;2065.895000
2.132000;2064.605000
2.130138;2058.987000
2.128275;2079.053000
2.126411;2075.145000
2.124546;2086.882000
2.122680;2084.868000
2.120813;2097.789000
2.118945;2104.184000
2.117075;2104.895000
2.115205;2107.500000
2.113334;2125.250000
2.111461;2123.645000
2.109588;2130.868000
2.107714;2131.263000
2.105838;2138.855000
2.103961;2144.395000
2.102084;2154.355000
2.100205;2164.342000
2.098326;2165.684000
2.096445;2172.329000
2.094563;2181.750000
2.092680;2188.395000
2.090796;2191.789000
2.088912;2189.895000
2.087026;2207.158000
2.085139;2218.039000
2.083251;2215.842000
2.081362;2229.789000
2.079472;2232.316000
2.077580;2244.474000
2.075688;2249.368000
2.073795;2261.105000
2.071901;2265.974000
2.070006;2282.592000
2.068109;2278.566000
2.066212;2296.974000
2.064313;2303.737000
2.062414;2309.684000
2.060513;2312.921000
2.058612;2320.066000
2.056709;2347.355000
2.054806;2352.211000
2.052901;2348.895000
2.050995;2361.711000
2.049089;2362.303000
2.047181;2374.382000
2.045272;2380.882000
2.043362;2391.855000
2.041451;2409.921000
2.039540;2420.553000
2.037627;2434.053000
2.035713;2429.316000
2.033798;2444.105000
2.031882;2459.500000
2.029965;2466.908000
2.028046;2468.724000
2.026127;2477.526000
2.024207;2500.697000
2.022286;2504.632000
2.020364;2528.553000
2.018440;2524.789000
2.016516;2544.566000
2.014591;2558.553000
2.012664;2565.671000
2.010737;2577.684000
2.008808;2587.908000
2.006879;2601.382000
2.004948;2616.632000
2.003017;2624.039000
2.001084;2642.145000
1.999151;2661.908000
1.997216;2668.171000
1.995280;2676.053000
1.993343;2690.013000
1.991406;2724.355000
1.989467;2712.513000
1.987527;2721.237000
1.985586;2729.789000
1.983644;2791.632000
1.981702;2779.855000
1.979758;2794.816000
1.977813;2796.500000
1.975867;2818.263000
1.973920;2813.974000
1.971972;2852.013000
1.970023;2868.724000
1.968072;2873.316000
1.966121;2888.329000
1.964169;2918.263000
1.962216;2923.553000
1.960262;2948.013000
1.958307;2964.605000
1.956350;2984.579000
1.954393;3006.368000
1.952435;3019.737000
1.950475;3034.618000
1.948515;3068.395000
1.946554;3070.382000
1.944591;3092.671000
1.942628;3121.066000
1.940664;3137.395000
1.938698;3141.697000
1.936732;3183.961000
1.934764;3210.079000
1.932796;3236.592000
1.930826;3251.329000
1.928855;3300.987000
1.926884;3321.737000
1.924911;3350.171000
1.922938;3377.579000
1.920963;3412.684000
1.918987;3440.947000
1.917011;3477.250000
1.915033;3518.066000
1.913054;3565.368000
1.911074;3593.500000
1.909094;3635.987000
1.907112;3675.197000
1.905129;3717.750000
1.903145;3778.605000
1.901160;3821.171000
1.899175;3870.013000
1.897188;3911.263000
1.895200;3944.039000
1.893211;4006.368000
1.891221;4055.882000
1.889230;4091.605000
1.887238;4138.368000
1.885245;4178.013000
1.883251;4226.592000
1.881256;4266.684000
1.879260;4321.224000
1.877263;4353.776000
1.875265;4418.013000
1.873266;4436.592000
1.871266;4489.605000
1.869265;4520.618000
1.867263;4572.776000
1.865260;4609.934000
1.863256;4658.842000
1.861251;4704.237000
1.859245;4734.434000
1.857238;4782.066000
1.855230;4829.197000
1.853221;4867.724000
1.851211;4923.711000
1.849200;4973.250000
1.847188;5047.947000
1.845174;5082.066000
1.843160;5130.447000
1.841145;5201.803000
1.839129;5255.079000
1.837112;5322.434000
1.835094;5384.158000
1.833075;5466.987000
1.831055;5554.579000
1.829033;5626.645000
1.827011;5723.632000
1.824988;5826.421000
1.822964;5938.763000
1.820939;6054.224000
1.818913;6159.908000
1.816886;6281.105000
1.814857;6410.474000
1.812828;6575.645000
1.810798;6706.868000
1.808767;6842.987000
1.806735;7002.211000
1.804702;7125.382000
1.802668;7269.026000
1.800633;7398.789000
1.798596;7515.803000
1.796559;7670.724000
1.794521;7590.434000
1.792482;nan
1.790442;nan
1.788401;nan
1.786359;nan
1.784316;nan
1.782272;nan
1.780227;nan
1.778181;nan
1.776134;nan
1.774086;nan
1.772037;nan
1.769987;nan
1.767936;nan
1.765884;nan
1.763831;nan
1.761777;nan
1.759722;nan
1.757666;7597.158000
1.755609;7750.605000
1.753552;7643.605000
1.751493;7563.789000
1.749433;7499.947000
1.747372;7397.276000
1.745310;7297.434000
1.743248;7218.526000
1.741184;7111.763000
1.739119;7008.382000
1.737053;6934.368000
1.734987;6807.671000
1.732919;6692.000000
1.730850;6581.079000
1.728781;6517.329000
1.726710;6420.526000
1.724639;6344.263000
1.722566;6243.684000
1.720493;6196.263000
1.718418;6133.855000
1.716343;6085.053000
1.714266;6038.184000
1.712189;5995.171000
1.710110;5950.816000
1.708031;5905.974000
1.705951;5885.421000
1.703869;5841.250000
1.701787;5824.605000
1.699704;5801.882000
1.697620;5776.461000
1.695535;5758.684000
1.693448;5746.868000
1.691361;5735.789000
1.689273;5714.184000
1.687184;5695.697000
1.685094;5683.829000
1.683003;5681.776000
1.680911;5668.487000
1.678819;5662.224000
1.676725;5648.632000
1.674630;5631.592000
1.672534;5630.539000
1.670437;5612.026000
1.668340;5589.447000
1.666241;5595.026000
1.664141;5575.868000
1.662041;5565.789000
1.659939;5565.184000
1.657837;5563.711000
1.655733;5535.513000
1.653629;5538.000000
1.651524;5510.197000
1.649417;5509.408000
1.647310;5516.579000
1.645202;5509.737000
1.643093;5498.829000
1.640983;5499.882000
1.638872;5470.579000
1.636760;5486.711000
1.634647;5492.526000
1.632533;5473.132000
1.630418;5483.526000
1.628302;5477.724000
1.626185;5473.566000
1.624068;5467.500000
1.621949;5461.974000
1.619829;5462.487000
1.617709;5455.645000
1.615587;5448.711000
1.613465;5467.579000
1.611341;5469.237000
1.609217;5467.026000
1.607092;5433.579000
1.604966;5457.816000
1.602839;5456.855000
1.600711;5471.145000
1.598582;5455.934000
1.596452;5460.368000
1.594321;5465.658000
1.592189;5454.776000
1.590056;5456.539000
1.587922;5456.039000
1.585788;5459.618000
1.583652;5461.500000
1.581516;5459.079000
1.579378;5460.816000
1.577240;5451.961000
1.575101;5451.092000
1.572961;5464.013000
1.570819;5440.947000
1.568677;5458.000000
1.566534;5459.711000
1.564390;5466.184000
1.562246;5457.579000
1.560100;5450.895000
1.557953;5506.434000
1.555806;5422.355000
1.553657;5418.184000
1.551508;5413.487000
1.549357;5519.039000
1.547206;5459.895000
1.545054;5469.789000
1.542900;5461.211000
1.540746;5451.566000
1.538591;5451.737000
1.536436;5453.882000
1.534279;5450.974000
1.532121;5445.645000
1.529962;5443.039000
1.527803;5442.053000
1.525642;5442.263000
1.523481;5443.355000
1.521319;5427.947000
1.519155;5396.513000
1.516991;5423.289000
1.514826;5417.382000
1.512660;5411.776000
1.510494;5398.316000
1.508326;5387.224000
1.506157;5392.882000
1.503988;5395.132000
1.501817;5371.329000
1.499646;5364.908000
1.497473;5359.500000
1.495300;5348.105000
1.493126;5327.342000
1.490951;5319.566000
1.488775;5321.921000
1.486599;5322.566000
1.484421;5299.276000
1.482242;5310.421000
1.480063;5266.711000
1.477883;5284.250000
1.475701;5266.447000
1.473519;5262.092000
1.471336;5228.434000
1.469152;5221.237000
1.466967;5228.987000
1.464782;5208.487000
1.462595;5194.118000
1.460408;5186.842000
1.458219;5167.368000
1.456030;5166.618000
1.453840;5152.526000
1.451649;5164.934000
1.449457;5144.026000
1.447264;5129.789000
1.445070;5120.395000
1.442876;5108.592000
1.440680;5104.066000
1.438484;5091.132000
1.436287;5092.289000
1.434089;5057.158000
1.431890;5058.684000
1.429690;5046.342000
1.427489;5050.763000
1.425288;5048.605000
1.423085;5026.276000
1.420882;5027.882000
1.418678;4997.618000
1.416473;5008.329000
1.414267;4998.776000
1.412060;4995.171000
1.409852;4970.487000
1.407644;4945.184000
1.405434;4964.079000
1.403224;4928.105000
1.401013;4905.434000
1.398801;4897.908000
1.396588;4871.092000
1.394374;4867.158000
1.392160;4823.303000
1.389944;4817.237000
1.387728;4788.895000
1.385511;4779.816000
1.383293;4749.658000
1.381074;4724.658000
1.378854;4696.184000
1.376633;4674.882000
1.374412;4633.316000
1.372190;4607.658000
1.369966;4576.000000
1.367742;4540.803000
1.365518;4513.487000
1.363292;4480.526000
1.361065;4447.395000
1.358838;4418.618000
1.356610;4379.961000
1.354381;4357.237000
1.352151;4330.105000
1.349920;4296.171000
1.347688;4284.579000
1.345456;4257.987000
1.343223;4234.289000
1.340988;3974.211000
1.338753;nan
1.336518;nan
1.334281;nan
1.332043;nan
1.329805;nan
1.327566;nan
1.325326;nan
1.323085;nan
1.320843;nan
1.318601;nan
1.316358;nan
1.314114;nan
1.311869;nan
1.309623;nan
1.307376;nan
1.305129;nan
1.302881;nan
1.300631;3596.763000
1.298382;3827.618000
1.296131;3805.355000
1.293879;3805.092000
1.291627;3787.526000
1.289374;3762.868000
1.287120;3758.645000
1.284865;3751.395000
1.282609;3722.368000
1.280353;3710.487000
1.278096;3694.658000
1.275838;3678.605000
1.273579;3661.342000
1.271319;3651.303000
1.269059;3636.211000
1.266797;3624.987000
1.264535;3613.395000
1.262272;3588.079000
1.260009;3580.434000
1.257744;3574.711000
1.255479;3547.408000
1.253213;3534.250000
1.250946;3510.750000
1.248678;3518.789000
1.246410;3486.395000
1.244141;3483.395000
1.241871;3474.605000
1.239600;3480.605000
1.237328;3453.197000
1.235056;3436.408000
1.232782;3415.526000
1.230508;3406.500000
1.228234;3387.513000
1.225958;3376.329000
1.223682;3370.987000
1.221404;3343.513000
1.219126;3324.026000
1.216848;3309.342000
1.214568;3307.658000
1.212288;3286.184000
1.210007;3279.289000
1.207725;3252.342000
1.205442;3259.934000
1.203159;3236.092000
1.200875;3213.316000
1.198590;3207.750000
1.196304;3194.447000
1.194018;3173.711000
1.191730;3166.421000
1.189442;3147.158000
1.187154;3135.329000
1.184864;3132.592000
1.182574;3108.434000
1.180283;3091.066000
1.177991;3102.145000
1.175698;3074.539000
1.173405;3071.461000
1.171111;3063.474000
1.168816;3054.547000
1.166520;3040.816000
1.164224;3031.592000
1.161927;3014.342000
1.159629;3022.184000
1.157330;2998.421000
1.155031;2986.013000
1.152730;2986.605000
1.150430;2982.237000
1.148128;2952.526000
1.145826;2955.382000
1.143522;2933.908000
1.141218;2927.211000
1.138914;2907.737000
1.136608;2904.697000
1.134302;2903.842000
1.131995;2896.908000
1.129688;2863.500000
1.127380;2867.684000
1.125070;2858.092000
1.122761;2832.500000
1.120450;2831.197000
1.118139;2835.645000
1.115827;2824.382000
1.113514;2810.658000
1.111201;2807.842000
1.108887;2802.303000
1.106572;2782.039000
1.104256;2792.895000
1.101940;2786.934000
1.099623;2774.039000
1.097305;2752.776000
1.094986;2753.421000
1.092667;2758.289000
1.090347;2743.184000
1.088026;2740.171000
1.085705;2735.737000
1.083383;2750.605000
1.081060;2714.816000
1.078736;2712.316000
1.076412;2709.697000
1.074087;2733.803000
1.071762;2706.329000
1.069435;2703.447000
1.067108;2704.382000
1.064780;2691.158000
1.062452;2691.237000
1.060123;2695.447000
1.057793;2692.013000
1.055462;2694.789000
1.053131;2692.434000
1.050799;2698.868000
1.048466;2697.974000
1.046133;2688.947000
1.043799;2694.961000
1.041464;2696.276000
1.039129;2702.250000
1.036793;2687.487000
1.034456;2698.316000
1.032118;2704.618000
1.029780;2712.973000
1.027441;2710.763000
1.025102;2718.224000
1.022762;2724.627000
1.020421;2721.737000
1.018079;2728.737000
1.015737;2742.105000
1.013394;2729.671000
1.011050;2760.105000
1.008706;2757.658000
1.006361;2777.289000
1.004015;2763.921000
1.001669;2781.197000
0.999322;2801.882000
0.996975;2793.132000
0.994626;2808.908000
0.992277;2802.566000
0.989928;2815.434000
0.987577;2820.605000
0.985227;2828.513000
0.982875;2831.645000
0.980523;2849.961000
0.978170;2848.066000
0.975816;2885.882000
0.973462;2891.184000
0.971107;2894.974000
0.968752;2902.776000
0.966395;2902.158000
0.964039;2930.434000
0.961681;2946.842000
0.959323;2950.158000
0.956964;2974.145000
0.954605;2984.461000
0.952245;2985.447000
0.949884;3005.289000
0.947523;3018.921000
0.945161;3040.487000
0.942798;3039.211000
0.940435;3043.132000
0.938071;3052.013000
0.935707;3068.671000
0.933342;3061.500000
0.930976;3065.513000
0.928609;3055.513000
0.926242;3045.211000
0.923875;3051.171000
0.921507;3038.105000
0.919138;3037.513000
0.916768;3034.368000
0.914398;3027.395000
0.912027;3003.895000
0.909656;2995.789000
0.907284;2976.184000
0.904911;2953.184000
0.902538;2935.961000
0.900165;2920.158000
0.897790;2889.737000
0.895415;2883.079000
0.893039;2848.566000
0.890663;2836.513000
0.888286;2815.197000
0.885909;2781.132000
0.883531;2754.487000
0.881152;2735.605000
0.878773;2720.145000
0.876393;2686.421000
0.874013;2669.105000
0.871632;2653.776000
0.869250;2637.250000
0.866868;2625.000000
0.864485;2602.763000
0.862102;2587.053000
0.859718;2568.276000
0.857333;2556.237000
0.854948;2558.145000
0.852563;2521.421000
0.850176;2395.434000
0.847789;nan
0.845402;nan
0.843014;nan
0.840625;nan
0.838236;nan
0.835846;nan
0.833456;nan
0.831065;nan
0.828674;nan
0.826282;nan
0.823889;nan
0.821496;nan
0.819102;nan
0.816708;nan
0.814313;nan
0.811918;nan
0.809522;nan
0.807125;2335.579000
0.804728;2443.289000
0.802331;2446.434000
0.799932;2442.776000
0.797534;2376.803000
0.795134;2454.842000
0.792735;2458.382000
0.790334;2467.171000
0.787933;2501.184000
0.785532;2499.632000
0.783130;2527.908000
0.780728;2558.368000
0.778324;2575.158000
0.775921;2590.237000
0.773517;2600.645000
0.771112;2592.776000
0.768707;2595.868000
0.766301;2583.539000
0.763895;2572.934000
0.761488;2570.566000
0.759081;2555.566000
0.756673;2538.395000
0.754265;2517.382000
0.751856;2502.724000
0.749447;2483.987000
0.747037;2457.671000
0.744626;2458.368000
0.742216;2447.447000
0.739804;2424.645000
0.737392;2417.197000
0.734980;2415.355000
0.732567;2418.697000
0.730153;2411.697000
0.727739;2406.079000
0.725325;2406.132000
0.722910;2405.092000
0.720494;2401.553000
0.718078;2387.276000
0.715662;2396.776000
0.713245;2400.974000
0.710828;2387.553000
0.708410;2387.579000
0.705991;2392.026000
0.703572;2388.592000
0.701153;2394.079000
0.698733;2382.250000
0.696313;2387.118000
0.693892;2397.132000
0.691470;2387.132000
0.689049;2386.829000
0.686626;2382.132000
0.684203;2396.329000
0.681780;2402.039000
0.679356;2382.908000
0.676932;2395.987000
0.674508;2400.250000
0.672082;2400.421000
0.669657;2397.039000
0.667231;2405.895000
0.664804;2401.513000
0.662377;2409.711000
0.659950;2413.118000
0.657522;2412.789000
0.655093;2417.303000
0.652665;2409.816000
0.650235;2428.605000
0.647805;2423.737000
0.645375;2419.816000
0.642945;2431.224000
0.640514;2422.895000
0.638082;2434.579000
0.635650;2438.066000
0.633218;2441.395000
0.630785;2457.197000
0.628351;2441.908000
0.625918;2463.803000
0.623483;2440.974000
0.621049;2449.539000
0.618614;2460.908000
0.616178;2456.921000
0.613742;2471.184000
0.611306;2487.421000
0.608869;2486.237000
0.606432;2492.803000
0.603994;2496.632000
0.601556;2507.395000
0.599118;2523.145000
0.596679;2532.711000
0.594240;2541.355000
0.591800;2553.789000
0.589360;2571.684000
0.586919;2580.566000
0.584478;2605.987000
0.582037;2619.697000
0.579595;2637.684000
0.577153;2683.395000
0.574710;2675.684000
0.572267;2701.289000
0.569824;2727.737000
0.567380;2800.408000
0.564936;2814.224000
0.562491;2853.276000
0.560046;2898.539000
0.557601;2949.513000
0.555155;3015.408000
0.552709;3065.960000
0.550262;3161.000000
0.547815;3250.132000
0.545368;3347.526000
0.542920;3461.737000
0.540472;3589.303000
0.538024;3739.303000
0.535575;3930.118000
0.533125;4144.053000
0.530676;4415.132000
0.528226;4729.632000
0.525776;5118.461000
0.523325;5566.132000
0.520874;6110.711000
0.518422;6702.934000
0.515970;7338.947000
0.513518;8023.842000
0.511066;8706.184000
0.508613;9321.961000
0.506160;9923.197000
0.503706;10466.830000
0.501252;10940.300000
0.498798;11383.950000
0.496343;11806.290000
0.493888;12224.290000
0.491432;12626.670000
0.488977;13056.030000
0.486521;13521.880000
0.484064;13937.200000
0.481607;14333.160000
0.479150;14656.760000
0.476693;14825.380000
0.474235;14869.280000
0.471777;14822.890000
0.469319;14345.880000
0.466860;13778.530000
0.464401;13059.660000
0.461941;12206.930000
0.459481;11294.820000
0.457021;10340.960000
0.454561;9424.934000
0.452100;8511.750000
0.449639;7675.882000
0.447178;6956.855000
0.444716;6314.684000
0.442254;5779.447000
0.439792;5301.618000
0.437329;4954.579000
0.434866;4637.000000
0.432403;4416.500000
0.429939;4230.974000
0.427476;4103.553000
0.425011;4023.842000
0.422547;3969.961000
0.420082;3975.750000
0.417617;3986.882000
0.415152;4002.513000
0.412686;4026.868000
0.410220;4092.276000
0.407754;4188.408000
0.405287;4347.947000
0.402821;4599.500000
0.400353;5008.355000
0.397886;5600.921000
0.395418;6377.697000
0.392950;7303.855000
0.390482;8209.447000
0.388014;8935.934000
0.385545;9342.737000
0.383076;9431.974000
0.380607;9214.947000
0.378137;8762.842000
0.375667;8194.171000
0.373197;7692.566000
0.370727;7247.579000
0.368256;6946.026000
0.365785;6764.461000
0.363314;6738.579000
0.360843;6803.289000
0.358371;6995.434000
0.355899;7255.184000
0.353427;7595.934000
0.350954;8033.553000
0.348482;8536.316000
0.346009;9127.368000
0.343535;9798.579000
0.341062;10608.530000
0.338588;11478.950000
0.336114;12441.680000
0.333640;12813.170000
0.331166;nan
0.328691;nan
0.326216;nan
0.323741;nan
0.321266;nan
0.318790;nan
0.316315;nan
0.313839;nan
0.311362;nan
0.308886;nan
0.306409;nan
0.303932;nan
0.301455;nan
0.298978;nan
0.296500;nan
0.294023;nan
0.291545;nan
0.289067;18348.670000
0.286588;18555.860000
0.284110;17845.430000
0.281631;17118.920000
0.279152;16406.820000
0.276673;15787.960000
0.274193;15160.540000
0.271714;14664.910000
0.269234;14193.660000
0.266754;13714.820000
0.264274;13348.720000
0.261794;13016.530000
0.259313;12704.010000
0.256833;12448.860000
0.254352;12179.870000
0.251871;11974.110000
0.249389;11780.640000
0.246908;11662.170000
0.244426;11508.550000
0.241945;11431.800000
0.239463;11361.120000
0.236981;11316.700000
0.234498;11274.720000
0.232016;11298.930000
0.229533;11307.200000
0.227051;11338.110000
0.224568;11420.170000
0.222085;11452.890000
0.219601;11553.870000
0.217118;11650.360000
0.214634;11767.950000
0.212151;11915.160000
0.209667;12076.170000
0.207183;12216.840000
0.204699;12440.780000
0.202214;12658.170000
0.199730;12904.220000
0.197245;13180.110000
0.194761;13395.070000
0.192276;13695.970000
0.189791;13974.110000
0.187306;14319.920000
0.184820;14695.260000
0.182335;15098.840000
0.179849;15551.540000
0.177364;16041.420000
0.174878;16437.740000
0.172392;16977.540000
0.169906;17623.180000
0.167420;18134.180000
0.164934;18797.830000
0.162447;19539.630000
0.159961;20234.380000
0.157474;21077.950000
0.154988;21882.740000
0.152501;22744.430000
0.150014;23872.880000
0.147527;24828.780000
0.145040;25962.660000
0.142552;27425.050000
0.140065;28364.420000
0.137578;30126.670000
0.135090;31693.880000
0.132602;32835.760000
0.130115;35208.800000
0.127627;36641.500000
0.125139;38500.620000
0.122651;41384.920000
0.120163;28245.910000
0.117675;8294.408000
0.115186;7592.947000
0.112698;7354.026000
0.110210;7271.158000
0.107721;6959.605000
0.105233;6483.158000
0.102744;6546.842000
0.100255;6555.947000
0.097766;6606.303000
0.095278;6648.908000
0.092789;6710.961000
0.090300;6721.197000
0.087811;6802.211000
0.085322;6846.066000
0.082832;6907.750000
0.080343;7009.855000
0.077854;7092.079000
0.075365;7138.461000
0.072875;7314.697000
0.070386;7449.645000
0.067896;7613.000000
0.065407;7781.829000
0.062917;8014.500000
0.060428;8283.487000
0.057938;8751.000000
0.055448;9315.224000
0.052959;9993.171000
0.050469;10089.800000
0.047979;10463.220000
0.045489;10833.800000
0.042999;11837.470000
0.040509;12692.030000
0.038019;13916.010000
0.035529;15314.470000
0.033040;18067.580000
0.030550;21879.680000
0.028060;30064.670000
0.025569;29870.500000
0.023079;22931.530000
0.020589;23335.740000
0.018099;25051.950000
0.015609;28325.990000
0.013119;31441.880000
0.010629;35873.240000
0.008139;42565.740000
0.005649;50147.800000
0.003159;57738.110000
0.000669;62577.500000
-0.001821;59878.930000
-0.004312;26056.720000
-0.006802;682.934200
-0.009292;650.289500
-0.011782;646.684200
-0.014272;640.460500
-0.016762;629.618400
-0.019252;628.144700
-0.021742;626.513200
-0.024232;615.657900
-0.026722;611.526300
-0.029212;606.052600
-0.031702;597.552600
-0.034192;594.881600
-0.036682;585.236800
-0.039172;581.934200
-0.041661;574.394700
-0.044151;567.000000
-0.046641;559.171100
-0.049131;557.605300
-0.051620;552.657900
-0.054110;557.763200
-0.056600;548.118400
-0.059089;550.855300
-0.061579;544.631600
-0.064068;540.552600
-0.066558;536.671100
-0.069047;533.986800
-0.071536;534.407900
-0.074025;527.000000
-0.076515;526.815800
-0.079004;519.342100
-0.081493;515.315800
-0.083982;513.328900
-0.086471;517.052600
