Pixel;q_z(A^-1);Intensity
1.000000;2.213058;1963.408000
2.000000;2.211242;1998.289000
3.000000;2.209425;1976.711000
4.000000;2.207608;1973.750000
5.000000;2.205789;1989.684000
6.000000;2.203969;1989.618000
7.000000;2.202148;1995.342000
8.000000;2.200326;1987.026000
9.000000;2.198503;1998.961000
10.000000;2.196679;2006.355000
11.000000;2.194853;2008.684000
12.000000;2.193027;2015.500000
13.000000;2.191200;2008.776000
14.000000;2.189371;2027.329000
15.000000;2.187542;2028.421000
16.000000;2.185712;2038.329000
17.000000;2.183880;2027.724000
18.000000;2.182048;2044.513000
19.000000;2.180214;2045.184000
20.000000;2.178380;2048.237000
21.000000;2.176544;2065.895000
22.000000;2.174707;2064.605000
23.000000;2.172869;2058.987000
24.000000;2.171031;2079.053000
25.000000;2.169191;2075.145000
26.000000;2.167350;2086.882000
27.000000;2.165508;2084.868000
28.000000;2.163665;2097.789000
29.000000;2.161821;2104.184000
30.000000;2.159976;2104.895000
31.000000;2.158130;2107.500000
32.000000;2.156282;2125.250000
33.000000;2.154434;2123.645000
34.000000;2.152585;2130.868000
35.000000;2.150735;2131.263000
36.000000;2.148883;2138.855000
37.000000;2.147031;2144.395000
38.000000;2.145177;2154.355000
39.000000;2.143323;2164.342000
40.000000;2.141467;2165.684000
41.000000;2.139611;2172.329000
42.000000;2.137753;2181.750000
43.000000;2.135894;2188.395000
44.000000;2.134035;2191.789000
45.000000;2.132174;2189.895000
46.000000;2.130312;2207.158000
47.000000;2.128449;2218.039000
48.000000;2.126585;2215.842000
49.000000;2.124720;2229.789000
50.000000;2.122854;2232.316000
51.000000;2.120987;2244.474000
52.000000;2.119119;2249.368000
53.000000;2.117250;2261.105000
54.000000;2.115380;2265.974000
55.000000;2.113509;2282.592000
56.000000;2.111636;2278.566000
57.000000;2.109763;2296.974000
58.000000;2.107889;2303.737000
59.000000;2.106013;2309.684000
60.000000;2.104137;2312.921000
61.000000;2.102259;2320.066000
62.000000;2.100381;2347.355000
63.000000;2.098501;2352.211000
64.000000;2.096621;2348.895000
65.000000;2.094739;2361.711000
66.000000;2.092856;2362.303000
67.000000;2.090972;2374.382000
68.000000;2.089088;2380.882000
69.000000;2.087202;2391.855000
70.000000;2.085315;2409.921000
71.000000;2.083427;2420.553000
72.000000;2.081538;2434.053000
73.000000;2.079648;2429.316000
74.000000;2.077757;2444.105000
75.000000;2.075865;2459.500000
76.000000;2.073972;2466.908000
77.000000;2.072078;2468.724000
78.000000;2.070183;2477.526000
79.000000;2.068286;2500.697000
80.000000;2.066389;2504.632000
81.000000;2.064491;2528.553000
82.000000;2.062591;2524.789000
83.000000;2.060691;2544.566000
84.000000;2.058790;2558.553000
85.000000;2.056887;2565.671000
86.000000;2.054984;2577.684000
87.000000;2.053079;2587.908000
88.000000;2.051173;2601.382000
89.000000;2.049267;2616.632000
90.000000;2.047359;2624.039000
91.000000;2.045450;2642.145000
92.000000;2.043541;2661.908000
93.000000;2.041630;2668.171000
94.000000;2.039718;2676.053000
95.000000;2.037805;2690.013000
96.000000;2.035891;2724.355000
97.000000;2.033977;2712.513000
98.000000;2.032061;2721.237000
99.000000;2.030144;2729.789000
100.000000;2.028226;2791.632000
101.000000;2.026307;2779.855000
102.000000;2.024386;2794.816000
103.000000;2.022465;2796.500000
104.000000;2.020543;2818.263000
105.000000;2.018620;2813.974000
106.000000;2.016696;2852.013000
107.000000;2.014770;2868.724000
108.000000;2.012844;2873.316000
109.000000;2.010917;2888.329000
110.000000;2.008988;2918.263000
111.000000;2.007059;2923.553000
112.000000;2.005129;2948.013000
113.000000;2.003197;2964.605000
114.000000;2.001265;2984.579000
115.000000;1.999331;3006.368000
116.000000;1.997397;3019.737000
117.000000;1.995461;3034.618000
118.000000;1.993524;3068.395000
119.000000;1.991587;3070.382000
120.000000;1.989648;3092.671000
121.000000;1.987708;3121.066000
122.000000;1.985768;3137.395000
123.000000;1.983826;3141.697000
124.000000;1.981883;3183.961000
125.000000;1.979939;3210.079000
126.000000;1.977994;3236.592000
127.000000;1.976048;3251.329000
128.000000;1.974102;3300.987000
129.000000;1.972154;3321.737000
130.000000;1.970205;3350.171000
131.000000;1.968255;3377.579000
132.000000;1.966304;3412.684000
133.000000;1.964352;3440.947000
134.000000;1.962399;3477.250000
135.000000;1.960444;3518.066000
136.000000;1.958489;3565.368000
137.000000;1.956533;3593.500000
138.000000;1.954576;3635.987000
139.000000;1.952618;3675.197000
140.000000;1.950659;3717.750000
141.000000;1.948698;3778.605000
142.000000;1.946737;3821.171000
143.000000;1.944775;3870.013000
144.000000;1.942811;3911.263000
145.000000;1.940847;3944.039000
146.000000;1.938882;4006.368000
147.000000;1.936915;4055.882000
148.000000;1.934948;4091.605000
149.000000;1.932979;4138.368000
150.000000;1.931010;4178.013000
151.000000;1.929040;4226.592000
152.000000;1.927068;4266.684000
153.000000;1.925096;4321.224000
154.000000;1.923122;4353.776000
155.000000;1.921147;4418.013000
156.000000;1.919172;4436.592000
157.000000;1.917195;4489.605000
158.000000;1.915218;4520.618000
159.000000;1.913239;4572.776000
160.000000;1.911259;4609.934000
161.000000;1.909279;4658.842000
162.000000;1.907297;4704.237000
163.000000;1.905314;4734.434000
164.000000;1.903331;4782.066000
165.000000;1.901346;4829.197000
166.000000;1.899360;4867.724000
167.000000;1.897373;4923.711000
168.000000;1.895386;4973.250000
169.000000;1.893397;5047.947000
170.000000;1.891407;5082.066000
171.000000;1.889416;5130.447000
172.000000;1.887424;5201.803000
173.000000;1.885431;5255.079000
174.000000;1.883438;5322.434000
175.000000;1.881443;5384.158000
176.000000;1.879447;5466.987000
177.000000;1.877450;5554.579000
178.000000;1.875452;5626.645000
179.000000;1.873453;5723.632000
180.000000;1.871453;5826.421000
181.000000;1.869452;5938.763000
182.000000;1.867450;6054.224000
183.000000;1.865447;6159.908000
184.000000;1.863443;6281.105000
185.000000;1.861438;6410.474000
186.000000;1.859433;6575.645000
187.000000;1.857426;6706.868000
188.000000;1.855418;6842.987000
189.000000;1.853409;7002.211000
190.000000;1.851399;7125.382000
191.000000;1.849388;7269.026000
192.000000;1.847376;7398.789000
193.000000;1.845362;7515.803000
194.000000;1.843348;7670.724000
195.000000;1.841333;7590.434000
196.000000;1.839317;nan
197.000000;1.837300;nan
198.000000;1.835282;nan
199.000000;1.833263;nan
200.000000;1.831243;nan
201.000000;1.829222;nan
202.000000;1.827200;nan
203.000000;1.825177;nan
204.000000;1.823153;nan
205.000000;1.821128;nan
206.000000;1.819102;nan
207.000000;1.817075;nan
208.000000;1.815047;nan
209.000000;1.813018;nan
210.000000;1.810988;nan
211.000000;1.808957;nan
212.000000;1.806925;nan
213.000000;1.804892;7597.158000
214.000000;1.802858;7750.605000
215.000000;1.800823;7643.605000
216.000000;1.798787;7563.789000
217.000000;1.796750;7499.947000
218.000000;1.794712;7397.276000
219.000000;1.792673;7297.434000
220.000000;1.790633;7218.526000
221.000000;1.788592;7111.763000
222.000000;1.786550;7008.382000
223.000000;1.784507;6934.368000
224.000000;1.782463;6807.671000
225.000000;1.780418;6692.000000
226.000000;1.778372;6581.079000
227.000000;1.776325;6517.329000
228.000000;1.774277;6420.526000
229.000000;1.772228;6344.263000
230.000000;1.770178;6243.684000
231.000000;1.768128;6196.263000
232.000000;1.766076;6133.855000
233.000000;1.764023;6085.053000
234.000000;1.761969;6038.184000
235.000000;1.759914;5995.171000
236.000000;1.757858;5950.816000
237.000000;1.755802;5905.974000
238.000000;1.753744;5885.421000
239.000000;1.751685;5841.250000
240.000000;1.749625;5824.605000
241.000000;1.747565;5801.882000
242.000000;1.745503;5776.461000
243.000000;1.743440;5758.684000
244.000000;1.741377;5746.868000
245.000000;1.739312;5735.789000
246.000000;1.737246;5714.184000
247.000000;1.735180;5695.697000
248.000000;1.733112;5683.829000
249.000000;1.731044;5681.776000
250.000000;1.728974;5668.487000
251.000000;1.726904;5662.224000
252.000000;1.724832;5648.632000
253.000000;1.722760;5631.592000
254.000000;1.720686;5630.539000
255.000000;1.718612;5612.026000
256.000000;1.716537;5589.447000
257.000000;1.714460;5595.026000
258.000000;1.712383;5575.868000
259.000000;1.710305;5565.789000
260.000000;1.708225;5565.184000
261.000000;1.706145;5563.711000
262.000000;1.704064;5535.513000
263.000000;1.701982;5538.000000
264.000000;1.699899;5510.197000
265.000000;1.697814;5509.408000
266.000000;1.695729;5516.579000
267.000000;1.693643;5509.737000
268.000000;1.691556;5498.829000
269.000000;1.689468;5499.882000
270.000000;1.687379;5470.579000
271.000000;1.685290;5486.711000
272.000000;1.683199;5492.526000
273.000000;1.681107;5473.132000
274.000000;1.679014;5483.526000
275.000000;1.676920;5477.724000
276.000000;1.674826;5473.566000
277.000000;1.672730;5467.500000
278.000000;1.670633;5461.974000
279.000000;1.668536;5462.487000
280.000000;1.666437;5455.645000
281.000000;1.664338;5448.711000
282.000000;1.662237;5467.579000
283.000000;1.660136;5469.237000
284.000000;1.658033;5467.026000
285.000000;1.655930;5433.579000
286.000000;1.653826;5457.816000
287.000000;1.651720;5456.855000
288.000000;1.649614;5471.145000
289.000000;1.647507;5455.934000
290.000000;1.645399;5460.368000
291.000000;1.643290;5465.658000
292.000000;1.641180;5454.776000
293.000000;1.639069;5456.539000
294.000000;1.636957;5456.039000
295.000000;1.634844;5459.618000
296.000000;1.632730;5461.500000
297.000000;1.630615;5459.079000
298.000000;1.628500;5460.816000
299.000000;1.626383;5451.961000
300.000000;1.624265;5451.092000
301.000000;1.622147;5464.013000
302.000000;1.620027;5440.947000
303.000000;1.617907;5458.000000
304.000000;1.615785;5459.711000
305.000000;1.613663;5466.184000
306.000000;1.611540;5457.579000
307.000000;1.609416;5450.895000
308.000000;1.607290;5506.434000
309.000000;1.605164;5422.355000
310.000000;1.603037;5418.184000
311.000000;1.600909;5413.487000
312.000000;1.598780;5519.039000
313.000000;1.596651;5459.895000
314.000000;1.594520;5469.789000
315.000000;1.592388;5461.211000
316.000000;1.590255;5451.566000
317.000000;1.588122;5451.737000
318.000000;1.585987;5453.882000
319.000000;1.583852;5450.974000
320.000000;1.581715;5445.645000
321.000000;1.579578;5443.039000
322.000000;1.577440;5442.053000
323.000000;1.575301;5442.263000
324.000000;1.573160;5443.355000
325.000000;1.571019;5427.947000
326.000000;1.568877;5396.513000
327.000000;1.566735;5423.289000
328.000000;1.564591;5417.382000
329.000000;1.562446;5411.776000
330.000000;1.560300;5398.316000
331.000000;1.558154;5387.224000
332.000000;1.556006;5392.882000
333.000000;1.553858;5395.132000
334.000000;1.551708;5371.329000
335.000000;1.549558;5364.908000
336.000000;1.547407;5359.500000
337.000000;1.545255;5348.105000
338.000000;1.543102;5327.342000
339.000000;1.540948;5319.566000
340.000000;1.538793;5321.921000
341.000000;1.536637;5322.566000
342.000000;1.534480;5299.276000
343.000000;1.532323;5310.421000
344.000000;1.530164;5266.711000
345.000000;1.528005;5284.250000
346.000000;1.525844;5266.447000
347.000000;1.523683;5262.092000
348.000000;1.521521;5228.434000
349.000000;1.519358;5221.237000
350.000000;1.517193;5228.987000
351.000000;1.515029;5208.487000
352.000000;1.512863;5194.118000
353.000000;1.510696;5186.842000
354.000000;1.508528;5167.368000
355.000000;1.506360;5166.618000
356.000000;1.504190;5152.526000
357.000000;1.502020;5164.934000
358.000000;1.499849;5144.026000
359.000000;1.497676;5129.789000
360.000000;1.495503;5120.395000
361.000000;1.493329;5108.592000
362.000000;1.491154;5104.066000
363.000000;1.488979;5091.132000
364.000000;1.486802;5092.289000
365.000000;1.484624;5057.158000
366.000000;1.482446;5058.684000
367.000000;1.480267;5046.342000
368.000000;1.478086;5050.763000
369.000000;1.475905;5048.605000
370.000000;1.473723;5026.276000
371.000000;1.471540;5027.882000
372.000000;1.469356;4997.618000
373.000000;1.467172;5008.329000
374.000000;1.464986;4998.776000
375.000000;1.462799;4995.171000
376.000000;1.460612;4970.487000
377.000000;1.458424;4945.184000
378.000000;1.456235;4964.079000
379.000000;1.454044;4928.105000
380.000000;1.451854;4905.434000
381.000000;1.449662;4897.908000
382.000000;1.447469;4871.092000
383.000000;1.445275;4867.158000
384.000000;1.443081;4823.303000
385.000000;1.440886;4817.237000
386.000000;1.438689;4788.895000
387.000000;1.436492;4779.816000
388.000000;1.434294;4749.658000
389.000000;1.432095;4724.658000
390.000000;1.429896;4696.184000
391.000000;1.427695;4674.882000
392.000000;1.425493;4633.316000
393.000000;1.423291;4607.658000
394.000000;1.421088;4576.000000
395.000000;1.418884;4540.803000
396.000000;1.416679;4513.487000
397.000000;1.414473;4480.526000
398.000000;1.412266;4447.395000
399.000000;1.410058;4418.618000
400.000000;1.407850;4379.961000
401.000000;1.405641;4357.237000
402.000000;1.403430;4330.105000
403.000000;1.401219;4296.171000
404.000000;1.399007;4284.579000
405.000000;1.396795;4257.987000
406.000000;1.394581;4234.289000
407.000000;1.392367;3974.211000
408.000000;1.390151;nan
409.000000;1.387935;nan
410.000000;1.385718;nan
411.000000;1.383500;nan
412.000000;1.381281;nan
413.000000;1.379061;nan
414.000000;1.376841;nan
415.000000;1.374619;nan
416.000000;1.372397;nan
417.000000;1.370174;nan
418.000000;1.367950;nan
419.000000;1.365725;nan
420.000000;1.363500;nan
421.000000;1.361273;nan
422.000000;1.359046;nan
423.000000;1.356818;nan
424.000000;1.354589;nan
425.000000;1.352359;3596.763000
426.000000;1.350128;3827.618000
427.000000;1.347897;3805.355000
428.000000;1.345664;3805.092000
429.000000;1.343431;3787.526000
430.000000;1.341197;3762.868000
431.000000;1.338962;3758.645000
432.000000;1.336726;3751.395000
433.000000;1.334490;3722.368000
434.000000;1.332252;3710.487000
435.000000;1.330014;3694.658000
436.000000;1.327775;3678.605000
437.000000;1.325535;3661.342000
438.000000;1.323294;3651.303000
439.000000;1.321053;3636.211000
440.000000;1.318810;3624.987000
441.000000;1.316567;3613.395000
442.000000;1.314323;3588.079000
443.000000;1.312078;3580.434000
444.000000;1.309833;3574.711000
445.000000;1.307586;3547.408000
446.000000;1.305339;3534.250000
447.000000;1.303091;3510.750000
448.000000;1.300842;3518.789000
449.000000;1.298592;3486.395000
450.000000;1.296341;3483.395000
451.000000;1.294090;3474.605000
452.000000;1.291837;3480.605000
453.000000;1.289584;3453.197000
454.000000;1.287330;3436.408000
455.000000;1.285076;3415.526000
456.000000;1.282820;3406.500000
457.000000;1.280564;3387.513000
458.000000;1.278307;3376.329000
459.000000;1.276049;3370.987000
460.000000;1.273790;3343.513000
461.000000;1.271530;3324.026000
462.000000;1.269270;3309.342000
463.000000;1.267009;3307.658000
464.000000;1.264747;3286.184000
465.000000;1.262484;3279.289000
466.000000;1.260220;3252.342000
467.000000;1.257956;3259.934000
468.000000;1.255691;3236.092000
469.000000;1.253425;3213.316000
470.000000;1.251158;3207.750000
471.000000;1.248890;3194.447000
472.000000;1.246622;3173.711000
473.000000;1.244353;3166.421000
474.000000;1.242083;3147.158000
475.000000;1.239812;3135.329000
476.000000;1.237540;3132.592000
477.000000;1.235268;3108.434000
478.000000;1.232995;3091.066000
479.000000;1.230721;3102.145000
480.000000;1.228446;3074.539000
481.000000;1.226170;3071.461000
482.000000;1.223894;3063.474000
483.000000;1.221617;3054.547000
484.000000;1.219339;3040.816000
485.000000;1.217061;3031.592000
486.000000;1.214781;3014.342000
487.000000;1.212501;3022.184000
488.000000;1.210220;2998.421000
489.000000;1.207938;2986.013000
490.000000;1.205656;2986.605000
491.000000;1.203372;2982.237000
492.000000;1.201088;2952.526000
493.000000;1.198803;2955.382000
494.000000;1.196518;2933.908000
495.000000;1.194231;2927.211000
496.000000;1.191944;2907.737000
497.000000;1.189656;2904.697000
498.000000;1.187367;2903.842000
499.000000;1.185078;2896.908000
500.000000;1.182788;2863.500000
501.000000;1.180497;2867.684000
502.000000;1.178205;2858.092000
503.000000;1.175912;2832.500000
504.000000;1.173619;2831.197000
505.000000;1.171325;2835.645000
506.000000;1.169030;2824.382000
507.000000;1.166735;2810.658000
508.000000;1.164438;2807.842000
509.000000;1.162141;2802.303000
510.000000;1.159843;2782.039000
511.000000;1.157545;2792.895000
512.000000;1.155245;2786.934000
513.000000;1.152945;2774.039000
514.000000;1.150645;2752.776000
515.000000;1.148343;2753.421000
516.000000;1.146041;2758.289000
517.000000;1.143738;2743.184000
518.000000;1.141434;2740.171000
519.000000;1.139129;2735.737000
520.000000;1.136824;2750.605000
521.000000;1.134518;2714.816000
522.000000;1.132211;2712.316000
523.000000;1.129903;2709.697000
524.000000;1.127595;2733.803000
525.000000;1.125286;2706.329000
526.000000;1.122976;2703.447000
527.000000;1.120666;2704.382000
528.000000;1.118355;2691.158000
529.000000;1.116043;2691.237000
530.000000;1.113730;2695.447000
531.000000;1.111417;2692.013000
532.000000;1.109103;2694.789000
533.000000;1.106788;2692.434000
534.000000;1.104472;2698.868000
535.000000;1.102156;2697.974000
536.000000;1.099839;2688.947000
537.000000;1.097521;2694.961000
538.000000;1.095203;2696.276000
539.000000;1.092884;2702.250000
540.000000;1.090564;2687.487000
541.000000;1.088243;2698.316000
542.000000;1.085922;2704.618000
543.000000;1.083600;2712.973000
544.000000;1.081277;2710.763000
545.000000;1.078954;2718.224000
546.000000;1.076629;2724.627000
547.000000;1.074304;2721.737000
548.000000;1.071979;2728.737000
549.000000;1.069653;2742.105000
550.000000;1.067326;2729.671000
551.000000;1.064998;2760.105000
552.000000;1.062669;2757.658000
553.000000;1.060340;2777.289000
554.000000;1.058011;2763.921000
555.000000;1.055680;2781.197000
556.000000;1.053349;2801.882000
557.000000;1.051017;2793.132000
558.000000;1.048684;2808.908000
559.000000;1.046351;2802.566000
560.000000;1.044017;2815.434000
561.000000;1.041682;2820.605000
562.000000;1.039347;2828.513000
563.000000;1.037011;2831.645000
564.000000;1.034674;2849.961000
565.000000;1.032337;2848.066000
566.000000;1.029999;2885.882000
567.000000;1.027660;2891.184000
568.000000;1.025320;2894.974000
569.000000;1.022980;2902.776000
570.000000;1.020639;2902.158000
571.000000;1.018298;2930.434000
572.000000;1.015956;2946.842000
573.000000;1.013613;2950.158000
574.000000;1.011269;2974.145000
575.000000;1.008925;2984.461000
576.000000;1.006580;2985.447000
577.000000;1.004235;3005.289000
578.000000;1.001888;3018.921000
579.000000;0.999541;3040.487000
580.000000;0.997194;3039.211000
581.000000;0.994846;3043.132000
582.000000;0.992497;3052.013000
583.000000;0.990147;3068.671000
584.000000;0.987797;3061.500000
585.000000;0.985446;3065.513000
586.000000;0.983095;3055.513000
587.000000;0.980742;3045.211000
588.000000;0.978390;3051.171000
589.000000;0.976036;3038.105000
590.000000;0.973682;3037.513000
591.000000;0.971327;3034.368000
592.000000;0.968972;3027.395000
593.000000;0.966615;3003.895000
594.000000;0.964259;2995.789000
595.000000;0.961901;2976.184000
596.000000;0.959543;2953.184000
597.000000;0.957185;2935.961000
598.000000;0.954825;2920.158000
599.000000;0.952465;2889.737000
600.000000;0.950105;2883.079000
601.000000;0.947743;2848.566000
602.000000;0.945381;2836.513000
603.000000;0.943019;2815.197000
604.000000;0.940656;2781.132000
605.000000;0.938292;2754.487000
606.000000;0.935928;2735.605000
607.000000;0.933562;2720.145000
608.000000;0.931197;2686.421000
609.000000;0.928830;2669.105000
610.000000;0.926464;2653.776000
611.000000;0.924096;2637.250000
612.000000;0.921728;2625.000000
613.000000;0.919359;2602.763000
614.000000;0.916990;2587.053000
615.000000;0.914619;2568.276000
616.000000;0.912249;2556.237000
617.000000;0.909878;2558.145000
618.000000;0.907506;2521.421000
619.000000;0.905133;2395.434000
620.000000;0.902760;nan
621.000000;0.900386;nan
622.000000;0.898012;nan
623.000000;0.895637;nan
624.000000;0.893261;nan
625.000000;0.890885;nan
626.000000;0.888508;nan
627.000000;0.886131;nan
628.000000;0.883753;nan
629.000000;0.881375;nan
630.000000;0.878995;nan
631.000000;0.876616;nan
632.000000;0.874235;nan
633.000000;0.871854;nan
634.000000;0.869473;nan
635.000000;0.867091;nan
636.000000;0.864708;nan
637.000000;0.862324;2335.579000
638.000000;0.859941;2443.289000
639.000000;0.857556;2446.434000
640.000000;0.855171;2442.776000
641.000000;0.852785;2376.803000
642.000000;0.850399;2454.842000
643.000000;0.848012;2458.382000
644.000000;0.845625;2467.171000
645.000000;0.843237;2501.184000
646.000000;0.840848;2499.632000
647.000000;0.838459;2527.908000
648.000000;0.836070;2558.368000
649.000000;0.833679;2575.158000
650.000000;0.831288;2590.237000
651.000000;0.828897;2600.645000
652.000000;0.826505;2592.776000
653.000000;0.824113;2595.868000
654.000000;0.821719;2583.539000
655.000000;0.819326;2572.934000
656.000000;0.816932;2570.566000
657.000000;0.814537;2555.566000
658.000000;0.812141;2538.395000
659.000000;0.809746;2517.382000
660.000000;0.807349;2502.724000
661.000000;0.804952;2483.987000
662.000000;0.802555;2457.671000
663.000000;0.800156;2458.368000
664.000000;0.797758;2447.447000
665.000000;0.795359;2424.645000
666.000000;0.792959;2417.197000
667.000000;0.790559;2415.355000
668.000000;0.788158;2418.697000
669.000000;0.785756;2411.697000
670.000000;0.783354;2406.079000
671.000000;0.780952;2406.132000
672.000000;0.778549;2405.092000
673.000000;0.776145;2401.553000
674.000000;0.773741;2387.276000
675.000000;0.771337;2396.776000
676.000000;0.768932;2400.974000
677.000000;0.766526;2387.553000
678.000000;0.764120;2387.579000
679.000000;0.761713;2392.026000
680.000000;0.759306;2388.592000
681.000000;0.756898;2394.079000
682.000000;0.754490;2382.250000
683.000000;0.752081;2387.118000
684.000000;0.749672;2397.132000
685.000000;0.747262;2387.132000
686.000000;0.744852;2386.829000
687.000000;0.742441;2382.132000
688.000000;0.740029;2396.329000
689.000000;0.737617;2402.039000
690.000000;0.735205;2382.908000
691.000000;0.732792;2395.987000
692.000000;0.730379;2400.250000
693.000000;0.727965;2400.421000
694.000000;0.725550;2397.039000
695.000000;0.723135;2405.895000
696.000000;0.720720;2401.513000
697.000000;0.718304;2409.711000
698.000000;0.715888;2413.118000
699.000000;0.713471;2412.789000
700.000000;0.711053;2417.303000
701.000000;0.708635;2409.816000
702.000000;0.706217;2428.605000
703.000000;0.703798;2423.737000
704.000000;0.701379;2419.816000
705.000000;0.698959;2431.224000
706.000000;0.696539;2422.895000
707.000000;0.694118;2434.579000
708.000000;0.691697;2438.066000
709.000000;0.689275;2441.395000
710.000000;0.686852;2457.197000
711.000000;0.684430;2441.908000
712.000000;0.682007;2463.803000
713.000000;0.679583;2440.974000
714.000000;0.677159;2449.539000
715.000000;0.674734;2460.908000
716.000000;0.672309;2456.921000
717.000000;0.669883;2471.184000
718.000000;0.667457;2487.421000
719.000000;0.665031;2486.237000
720.000000;0.662604;2492.803000
721.000000;0.660176;2496.632000
722.000000;0.657749;2507.395000
723.000000;0.655320;2523.145000
724.000000;0.652891;2532.711000
725.000000;0.650462;2541.355000
726.000000;0.648032;2553.789000
727.000000;0.645602;2571.684000
728.000000;0.643172;2580.566000
729.000000;0.640741;2605.987000
730.000000;0.638309;2619.697000
731.000000;0.635877;2637.684000
732.000000;0.633445;2683.395000
733.000000;0.631012;2675.684000
734.000000;0.628579;2701.289000
735.000000;0.626145;2727.737000
736.000000;0.623711;2800.408000
737.000000;0.621276;2814.224000
738.000000;0.618841;2853.276000
739.000000;0.616406;2898.539000
740.000000;0.613970;2949.513000
741.000000;0.611533;3015.408000
742.000000;0.609097;3065.960000
743.000000;0.606660;3161.000000
744.000000;0.604222;3250.132000
745.000000;0.601784;3347.526000
746.000000;0.599345;3461.737000
747.000000;0.596907;3589.303000
748.000000;0.594467;3739.303000
749.000000;0.592028;3930.118000
750.000000;0.589588;4144.053000
751.000000;0.587147;4415.132000
752.000000;0.584706;4729.632000
753.000000;0.582265;5118.461000
754.000000;0.579823;5566.132000
755.000000;0.577381;6110.711000
756.000000;0.574938;6702.934000
757.000000;0.572495;7338.947000
758.000000;0.570052;8023.842000
759.000000;0.567608;8706.184000
760.000000;0.565164;9321.961000
761.000000;0.562719;9923.197000
762.000000;0.560274;10466.830000
763.000000;0.557829;10940.300000
764.000000;0.555383;11383.950000
765.000000;0.552937;11806.290000
766.000000;0.550491;12224.290000
767.000000;0.548044;12626.670000
768.000000;0.545596;13056.030000
769.000000;0.543149;13521.880000
770.000000;0.540701;13937.200000
771.000000;0.538252;14333.160000
772.000000;0.535803;14656.760000
773.000000;0.533354;14825.380000
774.000000;0.530905;14869.280000
775.000000;0.528455;14822.890000
776.000000;0.526004;14345.880000
777.000000;0.523554;13778.530000
778.000000;0.521103;13059.660000
779.000000;0.518651;12206.930000
780.000000;0.516199;11294.820000
781.000000;0.513747;10340.960000
782.000000;0.511295;9424.934000
783.000000;0.508842;8511.750000
784.000000;0.506389;7675.882000
785.000000;0.503935;6956.855000
786.000000;0.501481;6314.684000
787.000000;0.499027;5779.447000
788.000000;0.496572;5301.618000
789.000000;0.494117;4954.579000
790.000000;0.491662;4637.000000
791.000000;0.489206;4416.500000
792.000000;0.486750;4230.974000
793.000000;0.484294;4103.553000
794.000000;0.481837;4023.842000
795.000000;0.479380;3969.961000
796.000000;0.476922;3975.750000
797.000000;0.474465;3986.882000
798.000000;0.472007;4002.513000
799.000000;0.469548;4026.868000
800.000000;0.467089;4092.276000
801.000000;0.464630;4188.408000
802.000000;0.462171;4347.947000
803.000000;0.459711;4599.500000
804.000000;0.457251;5008.355000
805.000000;0.454791;5600.921000
806.000000;0.452330;6377.697000
807.000000;0.449869;7303.855000
808.000000;0.447408;8209.447000
809.000000;0.444946;8935.934000
810.000000;0.442484;9342.737000
811.000000;0.440022;9431.974000
812.000000;0.437559;9214.947000
813.000000;0.435096;8762.842000
814.000000;0.432633;8194.171000
815.000000;0.430169;7692.566000
816.000000;0.427706;7247.579000
817.000000;0.425242;6946.026000
818.000000;0.422777;6764.461000
819.000000;0.420312;6738.579000
820.000000;0.417847;6803.289000
821.000000;0.415382;6995.434000
822.000000;0.412916;7255.184000
823.000000;0.410450;7595.934000
824.000000;0.407984;8033.553000
825.000000;0.405518;8536.316000
826.000000;0.403051;9127.368000
827.000000;0.400584;9798.579000
828.000000;0.398117;10608.530000
829.000000;0.395649;11478.950000
830.000000;0.393181;12441.680000
831.000000;0.390713;12813.170000
832.000000;0.388244;nan
833.000000;0.385776;nan
834.000000;0.383307;nan
835.000000;0.380837;nan
836.000000;0.378368;nan
837.000000;0.375898;nan
838.000000;0.373428;nan
839.000000;0.370957;nan
840.000000;0.368487;nan
841.000000;0.366016;nan
842.000000;0.363545;nan
843.000000;0.361073;nan
844.000000;0.358602;nan
845.000000;0.356130;nan
846.000000;0.353658;nan
847.000000;0.351185;nan
848.000000;0.348713;nan
849.000000;0.346240;18348.670000
850.000000;0.343766;18555.860000
851.000000;0.341293;17845.430000
852.000000;0.338819;17118.920000
853.000000;0.336345;16406.820000
854.000000;0.333871;15787.960000
855.000000;0.331397;15160.540000
856.000000;0.328922;14664.910000
857.000000;0.326448;14193.660000
858.000000;0.323972;13714.820000
859.000000;0.321497;13348.720000
860.000000;0.319022;13016.530000
861.000000;0.316546;12704.010000
862.000000;0.314070;12448.860000
863.000000;0.311594;12179.870000
864.000000;0.309117;11974.110000
865.000000;0.306641;11780.640000
866.000000;0.304164;11662.170000
867.000000;0.301687;11508.550000
868.000000;0.299209;11431.800000
869.000000;0.296732;11361.120000
870.000000;0.294254;11316.700000
871.000000;0.291776;11274.720000
872.000000;0.289298;11298.930000
873.000000;0.286820;11307.200000
874.000000;0.284341;11338.110000
875.000000;0.281862;11420.170000
876.000000;0.279384;11452.890000
877.000000;0.276904;11553.870000
878.000000;0.274425;11650.360000
879.000000;0.271945;11767.950000
880.000000;0.269466;11915.160000
881.000000;0.266986;12076.170000
882.000000;0.264506;12216.840000
883.000000;0.262025;12440.780000
884.000000;0.259545;12658.170000
885.000000;0.257064;12904.220000
886.000000;0.254583;13180.110000
887.000000;0.252102;13395.070000
888.000000;0.249621;13695.970000
889.000000;0.247140;13974.110000
890.000000;0.244658;14319.920000
891.000000;0.242176;14695.260000
892.000000;0.239695;15098.840000
893.000000;0.237212;15551.540000
894.000000;0.234730;16041.420000
895.000000;0.232248;16437.740000
896.000000;0.229765;16977.540000
897.000000;0.227282;17623.180000
898.000000;0.224800;18134.180000
899.000000;0.222316;18797.830000
900.000000;0.219833;19539.630000
901.000000;0.217350;20234.380000
902.000000;0.214866;21077.950000
903.000000;0.212383;21882.740000
904.000000;0.209899;22744.430000
905.000000;0.207415;23872.880000
906.000000;0.204931;24828.780000
907.000000;0.202446;25962.660000
908.000000;0.199962;27425.050000
909.000000;0.197477;28364.420000
910.000000;0.194993;30126.670000
911.000000;0.192508;31693.880000
912.000000;0.190023;32835.760000
913.000000;0.187538;35208.800000
914.000000;0.185053;36641.500000
915.000000;0.182567;38500.620000
916.000000;0.180082;41384.920000
917.000000;0.177596;28245.910000
918.000000;0.175110;8294.408000
919.000000;0.172624;7592.947000
920.000000;0.170138;7354.026000
921.000000;0.167652;7271.158000
922.000000;0.165166;6959.605000
923.000000;0.162680;6483.158000
924.000000;0.160193;6546.842000
925.000000;0.157707;6555.947000
926.000000;0.155220;6606.303000
927.000000;0.152733;6648.908000
928.000000;0.150246;6710.961000
929.000000;0.147759;6721.197000
930.000000;0.145272;6802.211000
931.000000;0.142785;6846.066000
932.000000;0.140297;6907.750000
933.000000;0.137810;7009.855000
934.000000;0.135322;7092.079000
935.000000;0.132835;7138.461000
936.000000;0.130347;7314.697000
937.000000;0.127859;7449.645000
938.000000;0.125371;7613.000000
939.000000;0.122883;7781.829000
940.000000;0.120395;8014.500000
941.000000;0.117907;8283.487000
942.000000;0.115419;8751.000000
943.000000;0.112930;9315.224000
944.000000;0.110442;9993.171000
945.000000;0.107954;10089.800000
946.000000;0.105465;10463.220000
947.000000;0.102976;10833.800000
948.000000;0.100488;11837.470000
949.000000;0.097999;12692.030000
950.000000;0.095510;13916.010000
951.000000;0.093021;15314.470000
952.000000;0.090532;18067.580000
953.000000;0.088043;21879.680000
954.000000;0.085554;30064.670000
955.000000;0.083065;29870.500000
956.000000;0.080576;22931.530000
957.000000;0.078086;23335.740000
958.000000;0.075597;25051.950000
959.000000;0.073108;28325.990000
960.000000;0.070618;31441.880000
961.000000;0.068129;35873.240000
962.000000;0.065639;42565.740000
963.000000;0.063150;50147.800000
964.000000;0.060660;57738.110000
965.000000;0.058170;62577.500000
966.000000;0.055681;59878.930000
967.000000;0.053191;26056.720000
968.000000;0.050701;682.934200
969.000000;0.048211;650.289500
970.000000;0.045722;646.684200
971.000000;0.043232;640.460500
972.000000;0.040742;629.618400
973.000000;0.038252;628.144700
974.000000;0.035762;626.513200
975.000000;0.033272;615.657900
976.000000;0.030782;611.526300
977.000000;0.028292;606.052600
978.000000;0.025802;597.552600
979.000000;0.023312;594.881600
980.000000;0.020822;585.236800
981.000000;0.018332;581.934200
982.000000;0.015842;574.394700
983.000000;0.013352;567.000000
984.000000;0.010862;559.171100
985.000000;0.008372;557.605300
986.000000;0.005881;552.657900
987.000000;0.003391;557.763200
988.000000;0.000901;548.118400
989.000000;-0.001589;550.855300
990.000000;-0.004079;544.631600
991.000000;-0.006569;540.552600
992.000000;-0.009059;536.671100
993.000000;-0.011549;533.986800
994.000000;-0.014039;534.407900
995.000000;-0.016529;527.000000
996.000000;-0.019019;526.815800
997.000000;-0.021509;519.342100
998.000000;-0.023999;515.315800
999.000000;-0.026489;513.328900
1000.000000;-0.028979;517.052600
